Data from FLMS055071__3__14-15-59-415.txt Node

Date: Wed Apr 28 14:15:59 CEST 2021
User: thoma
Spectrometer: FLMS05507
Trigger mode: 0
Integration Time (sec): 1,000000E-3
Scans to average: 1
Electric dark correction enabled: false
Nonlinearity correction enabled: false
Boxcar width: 0
XAxis mode: Wavelengths
Number of Pixels in Spectrum: 2048
>>>>>Begin Spectral Data<<<<<
188,96	2628,42
189,424	2628,42
189,887	2628,42
190,351	2675,23
190,815	2640,12
191,279	2637,78
191,742	2665,87
192,206	2626,08
192,669	2693,96
193,133	2670,55
193,596	2656,51
194,06	2651,83
194,523	2682,25
194,987	2679,91
195,45	2705,66
195,913	2717,36
196,376	2696,3
196,84	2789,92
197,303	2752,47
197,766	2829,71
198,229	2822,69
198,692	2857,79
199,155	2867,16
199,618	2867,16
200,081	2963,12
200,543	3038,02
201,006	2981,84
201,469	2986,52
201,932	3000,57
202,394	3042,7
202,857	3038,02
203,32	3098,87
203,782	3040,36
204,245	3033,33
204,707	3073,12
205,169	3070,78
205,632	3021,63
206,094	3082,49
206,556	3021,63
207,019	3094,19
207,481	3077,8
207,943	3105,89
208,405	3136,32
208,867	3105,89
209,329	3103,55
209,791	3026,31
210,253	3166,74
210,715	3091,85
211,177	3110,57
211,639	3033,33
212,1	3112,91
212,562	3070,78
213,024	3080,14
213,485	3089,51
213,947	3119,93
214,408	3098,87
214,87	3030,99
215,331	3101,21
215,793	3063,76
216,254	3075,46
216,715	3063,76
217,177	3115,25
217,638	3145,68
218,099	3094,19
218,56	3070,78
219,021	2981,84
219,482	3115,25
219,944	3077,8
220,404	3126,96
220,865	3073,12
221,326	3028,65
221,787	2984,18
222,248	3063,76
222,709	3002,91
223,169	3009,93
223,63	3117,59
224,091	3049,72
224,551	3000,57
225,012	3045,04
225,472	3066,1
225,933	3021,63
226,393	3049,72
226,854	3094,19
227,314	3061,42
227,774	3052,06
228,234	3063,76
228,695	3063,76
229,155	3108,23
229,615	3040,36
230,075	3101,21
230,535	3033,33
230,995	3042,7
231,455	3012,27
231,915	3073,12
232,375	3056,74
232,834	3068,44
233,294	3049,72
233,754	3077,8
234,214	3159,72
234,673	3019,29
235,133	3068,44
235,592	3087,17
236,052	3059,08
236,511	2977,16
236,971	3131,64
237,43	3101,21
237,889	3063,76
238,349	3091,85
238,808	3133,98
239,267	3075,46
239,726	3061,42
240,185	3075,46
240,644	3009,93
241,103	3035,67
241,562	3098,87
242,021	3049,72
242,48	3052,06
242,939	3094,19
243,398	3052,06
243,857	3049,72
244,315	3012,27
244,774	3030,99
245,233	3084,83
245,691	3096,53
246,15	3040,36
246,608	3091,85
247,067	3040,36
247,525	3108,23
247,983	3068,44
248,442	3045,04
248,9	3080,14
249,358	3091,85
249,816	3030,99
250,274	3096,53
250,733	3094,19
251,191	3040,36
251,649	3061,42
252,107	3049,72
252,564	3115,25
253,022	3070,78
253,48	3119,93
253,938	3082,49
254,396	3077,8
254,853	3054,4
255,311	3077,8
255,769	3066,1
256,226	3056,74
256,684	3016,95
257,141	3150,36
257,599	3119,93
258,056	3052,06
258,513	3117,59
258,971	3038,02
259,428	3023,97
259,885	3155,04
260,342	3129,3
260,799	3119,93
261,256	3103,55
261,714	3101,21
262,171	3077,8
262,627	3122,27
263,084	3056,74
263,541	3080,14
263,998	3070,78
264,455	3119,93
264,912	3169,09
265,368	3098,87
265,825	3096,53
266,281	3035,67
266,738	3052,06
267,194	3056,74
267,651	3063,76
268,107	3077,8
268,564	3108,23
269,02	3045,04
269,476	3084,83
269,933	3056,74
270,389	3101,21
270,845	3012,27
271,301	3126,96
271,757	3112,91
272,213	3098,87
272,669	3103,55
273,125	3119,93
273,581	3091,85
274,037	3155,04
274,492	3063,76
274,948	3098,87
275,404	3056,74
275,86	3070,78
276,315	3045,04
276,771	3047,38
277,226	3124,62
277,682	3169,09
278,137	3110,57
278,593	3089,51
279,048	3094,19
279,503	3059,08
279,958	3089,51
280,414	3066,1
280,869	3068,44
281,324	3033,33
281,779	3026,31
282,234	3073,12
282,689	3080,14
283,144	3073,12
283,599	3077,8
284,054	3061,42
284,508	3131,64
284,963	3049,72
285,418	3080,14
285,873	3115,25
286,327	3105,89
286,782	3047,38
287,236	3091,85
287,691	3082,49
288,145	3119,93
288,6	3073,12
289,054	3112,91
289,508	3033,33
289,963	3122,27
290,417	3047,38
290,871	3122,27
291,325	3066,1
291,779	3101,21
292,233	3080,14
292,687	3141
293,141	3066,1
293,595	3052,06
294,049	3131,64
294,503	3026,31
294,957	3019,29
295,41	3169,09
295,864	3096,53
296,318	3112,91
296,771	3126,96
297,225	3108,23
297,678	3098,87
298,132	3035,67
298,585	3112,91
299,039	3045,04
299,492	3040,36
299,945	3091,85
300,398	3112,91
300,852	3098,87
301,305	3131,64
301,758	3101,21
302,211	3145,68
302,664	3084,83
303,117	3063,76
303,57	3075,46
304,023	3159,72
304,476	3063,76
304,928	3108,23
305,381	3075,46
305,834	3155,04
306,286	3131,64
306,739	3070,78
307,192	3157,38
307,644	3173,77
308,097	3265,05
308,549	3183,13
309,001	3208,87
309,454	3211,21
309,906	3288,45
310,358	3279,09
310,81	3241,64
311,263	3382,07
311,715	3475,7
312,167	3440,59
312,619	3478,04
313,071	3459,31
313,523	3520,17
313,975	3534,21
314,426	3487,4
314,878	3623,15
315,33	3552,93
315,782	3639,53
316,233	3585,7
316,685	3604,42
317,136	3676,98
317,588	3735,49
318,039	3737,84
318,491	3901,67
318,942	3896,99
319,393	3971,89
319,845	3985,93
320,296	3997,63
320,747	4070,19
321,198	4105,3
321,649	4058,49
322,101	4074,87
322,552	4234,03
323,003	4168,49
323,453	4128,7
323,904	4180,2
324,355	4311,27
324,806	4367,44
325,257	4432,97
325,707	4622,56
326,158	4648,3
326,609	4755,97
327,059	4816,82
327,51	4816,82
327,96	4809,8
328,411	4863,63
328,861	4856,61
329,311	4873
329,762	4835,55
330,212	5015,77
330,662	5036,83
331,112	4931,51
331,562	4858,95
332,012	4849,59
332,462	4983
332,912	5039,17
333,362	4959,6
333,812	4973,64
334,262	4983
334,712	4943,21
335,161	5032,15
335,611	5118,75
336,061	4975,98
336,51	5036,83
336,96	5015,77
337,409	4947,89
337,859	5011,09
338,308	5088,32
338,758	4978,32
339,207	5231,1
339,656	5191,31
340,105	5406,64
340,555	5392,59
341,004	5296,63
341,453	5357,49
341,902	5284,93
342,351	5458,13
342,8	5511,96
343,249	5423,02
343,698	5453,45
344,146	5331,74
344,595	5320,04
345,044	5263,86
345,493	5401,96
345,941	5495,58
346,39	5383,23
346,838	5416
347,287	5518,98
347,735	5483,88
348,184	5511,96
348,632	5493,24
349,08	5607,92
349,529	5612,6
349,977	5596,22
350,425	5666,44
350,873	5755,38
351,321	6040,92
351,769	5944,96
352,217	5966,03
352,665	5832,61
353,113	5937,94
353,561	5973,05
354,009	6101,78
354,456	6193,06
354,904	6415,41
355,352	6394,34
355,799	6335,83
356,247	6214,12
356,694	6085,39
357,142	6010,5
357,589	5863,04
358,037	5736,65
358,484	5839,64
358,931	5741,33
359,379	6026,88
359,826	6230,51
360,273	6354,55
360,72	6438,81
361,167	6403,71
361,614	6335,83
362,061	6647,12
362,508	6494,99
362,955	6654,14
363,402	6644,78
363,848	6612,01
364,295	6817,98
364,742	6832,02
365,188	7005,22
365,635	7215,87
366,082	7555,25
366,528	7793,98
366,975	7585,68
367,421	7789,3
367,867	7791,64
368,314	7688,66
368,76	7569,29
369,206	7793,98
369,652	8039,74
370,098	7920,37
370,545	7999,95
370,991	7976,55
371,437	7896,97
371,882	7857,18
372,328	7791,64
372,774	7634,83
373,22	7473,33
373,666	7414,82
374,111	7265,02
374,557	7119,91
375,003	7316,51
375,448	7377,37
375,894	7744,83
376,339	7810,37
376,785	7892,29
377,23	8383,8
377,675	8709,13
378,121	8870,63
378,566	8940,85
379,011	8896,38
379,456	8491,46
379,901	8510,19
380,346	8571,04
380,791	8624,87
381,236	8500,83
381,681	8381,46
382,126	7889,95
382,571	7597,38
383,016	7222,89
383,461	7028,63
383,905	7143,31
384,35	7248,64
384,794	7396,09
385,239	7906,33
385,683	8109,96
386,128	8035,06
386,572	8112,3
387,017	8222,3
387,461	8102,93
387,905	8294,86
388,349	8248,05
388,794	8299,54
389,238	8519,55
389,682	8814,46
390,126	9205,33
390,57	9462,79
391,014	9806,84
391,457	9879,4
391,901	9745,99
392,345	9221,71
392,789	8437,63
393,233	7831,43
393,676	7368,01
394,12	7454,61
394,563	8119,32
395,007	8959,57
395,45	9226,39
395,894	9078,94
396,337	8805,1
396,78	8271,45
397,224	8166,13
397,667	8650,62
398,11	9509,6
398,553	10555,82
398,996	11220,53
399,439	11693,32
399,882	12210,57
400,325	12510,16
400,768	12989,97
401,211	12840,18
401,654	13099,98
402,096	13444,04
402,539	13429,99
402,982	13359,78
403,424	13373,82
403,867	13645,32
404,309	13774,05
404,752	13327,01
405,194	13231,05
405,637	13238,07
406,079	13312,97
406,521	12989,97
406,963	13022,74
407,406	13022,74
407,848	13263,82
408,29	13390,2
408,732	13678,09
409,174	14036,19
409,616	13596,17
410,058	13408,93
410,499	13415,95
410,941	13848,95
411,383	13860,65
411,825	14286,63
412,266	14637,71
412,708	14593,24
413,15	14352,16
413,591	14534,73
414,033	14406
414,474	14843,68
414,915	14260,88
415,357	14874,1
415,798	14539,41
416,239	14888,15
416,68	14927,94
417,121	14534,73
417,563	14499,62
418,004	14714,95
418,445	14721,97
418,885	14623,67
419,326	14403,66
419,767	14677,5
420,208	14705,59
420,649	14778,14
421,089	15225,18
421,53	15236,89
421,971	15187,74
422,411	14602,6
422,852	14881,13
423,292	15133,9
423,733	14815,59
424,173	14745,38
424,613	15159,65
425,054	15190,08
425,494	14913,89
425,934	15021,56
426,374	14995,81
426,814	14651,75
427,254	14801,55
427,694	14490,26
428,134	14703,25
428,574	14738,35
429,014	14209,39
429,454	13816,18
429,893	13324,67
430,333	12540,59
430,773	12451,65
431,212	12814,43
431,652	13652,34
432,091	14558,13
432,531	14712,61
432,97	15084,75
433,41	15154,97
433,849	14941,98
434,288	15075,39
434,727	15527,11
435,167	15770,53
435,606	15871,17
436,045	16343,96
436,484	16397,79
436,923	16449,28
437,362	16594,4
437,801	16449,28
438,239	16390,77
438,678	15967,13
439,117	16081,82
439,556	16472,69
439,994	16409,5
440,433	16676,32
440,871	16982,93
441,31	17069,53
441,748	17642,96
442,187	18113,41
442,625	18363,84
443,063	18221,07
443,502	17919,14
443,94	18710,24
444,378	18778,12
444,816	18518,32
445,254	18747,69
445,692	18478,53
446,13	18588,53
446,568	18946,64
447,006	18815,57
447,444	18602,58
447,881	19887,53
448,319	19833,7
448,757	19129,2
449,194	19686,25
449,632	19957,75
450,07	20091,16
450,507	20334,57
450,944	20596,71
451,382	20898,64
451,819	20355,64
452,256	20514,8
452,694	20130,95
453,131	20439,9
453,568	20198,82
454,005	19932
454,442	20311,17
454,879	20545,22
455,316	20919,71
455,753	20606,08
456,19	20800,34
456,627	21116,31
457,063	20849,49
457,5	21177,17
457,937	21128,02
458,373	20631,82
458,81	20334,57
459,246	20931,41
459,683	20622,46
460,119	20898,64
460,556	21432,29
460,992	21530,59
461,428	21558,67
461,864	22054,87
462,301	22005,72
462,737	22192,96
463,173	22462,12
463,609	21942,52
464,045	21872,31
464,481	22211,68
464,917	22132,11
465,352	22422,33
465,788	22326,37
466,224	22473,82
466,66	22548,72
467,095	22302,96
467,531	22419,99
467,966	22387,22
468,402	22745,33
468,837	23578,56
469,273	23522,38
469,708	23356,21
470,143	23620,69
470,578	23812,61
471,014	23658,13
471,449	24201,14
471,884	24732,44
472,319	25425,24
472,754	25221,61
473,189	25453,33
473,624	26029,1
474,059	25935,48
474,493	26450,39
474,928	27372,57
475,363	27887,48
475,797	27580,87
476,232	27262,56
476,667	28479,64
477,101	28608,37
477,536	29455,64
477,97	29287,12
478,404	29778,64
478,839	30110,99
479,273	30424,62
479,707	30895,07
480,141	31630
480,575	31805,54
481,009	31976,4
481,444	32353,23
481,877	32779,2
482,311	33165,39
482,745	33577,33
483,179	33703,71
483,613	33383,06
484,047	33610,09
484,48	33460,3
484,914	33600,73
485,347	31894,48
485,781	31683,83
486,214	30878,69
486,648	30345,05
487,081	31379,56
487,515	31810,22
487,948	32762,82
488,381	32884,53
488,814	33890,96
489,247	34005,64
489,68	35063,57
490,113	35267,19
490,546	35501,25
490,979	35405,28
491,412	35075,27
491,845	35281,24
492,278	35377,2
492,711	35058,88
493,143	35330,39
493,576	36128,51
494,009	36273,62
494,441	36917,27
494,874	36374,27
495,306	37118,56
495,738	37249,63
496,171	36943,02
496,603	37270,69
497,035	37570,28
497,467	37759,86
497,9	37193,45
498,332	36842,37
498,764	37104,51
499,196	37095,15
499,628	36760,45
500,06	36996,85
500,491	36184,68
500,923	36353,2
501,355	36006,8
501,787	35721,26
502,218	36322,77
502,65	36566,19
503,081	36514,7
503,513	36903,23
503,944	36933,65
504,376	37006,21
504,807	37127,92
505,238	37635,81
505,67	38316,91
506,101	38153,07
506,532	38508,83
506,963	38204,56
507,394	38068,81
507,825	38157,75
508,256	37790,29
508,687	38141,37
509,118	38349,68
509,549	38394,15
509,979	38129,67
510,41	38731,18
510,841	38171,8
511,271	38600,11
511,702	38892,68
512,132	38593,09
512,563	38565,01
512,993	37837,1
513,424	38471,39
513,854	37411,12
514,284	37771,57
514,714	37668,58
515,145	38277,12
515,575	37663,9
516,005	36772,16
516,435	36311,07
516,865	35056,54
517,295	34583,76
517,724	34871,64
518,154	34796,74
518,584	35445,07
519,014	35407,62
519,443	36411,71
519,873	36407,03
520,303	37062,38
520,732	37376,01
521,161	37745,82
521,591	37949,45
522,02	37933,06
522,45	37684,97
522,879	37584,32
523,308	37521,13
523,737	38089,88
524,166	37919,02
524,595	38244,35
525,024	38000,94
525,453	38204,56
525,882	37397,08
526,311	36662,15
526,74	35999,78
527,169	35573,8
527,597	35957,65
528,026	36357,88
528,455	36570,87
528,883	36896,2
529,312	37572,62
529,74	37834,76
530,168	37996,26
530,597	37762,2
531,025	38457,34
531,453	38909,07
531,882	38122,65
532,31	37481,34
532,738	36882,16
533,166	36786,2
533,594	37254,31
534,022	36907,91
534,45	37373,67
534,878	37251,97
535,305	37251,97
535,733	37893,27
536,161	37654,54
536,588	37577,3
537,016	37123,24
537,444	37226,22
537,871	37326,86
538,299	37301,12
538,726	37329,2
539,153	37266,01
539,581	36540,44
540,008	36636,41
540,435	35875,73
540,862	35679,13
541,289	36240,85
541,716	36107,44
542,143	36165,96
542,57	36219,79
542,997	35896,8
543,424	36935,99
543,851	36547,47
544,277	36875,14
544,704	36659,81
545,131	36774,5
545,557	36704,28
545,984	36814,29
546,41	36458,52
546,837	36360,22
547,263	36074,68
547,69	36086,38
548,116	36180
548,542	36409,37
548,968	36678,54
549,394	36208,09
549,82	36671,51
550,246	36142,55
550,672	36285,33
551,098	36299,37
551,524	36769,82
551,95	36112,13
552,376	36194,04
552,802	36041,91
553,227	36123,83
553,653	36549,81
554,078	36474,91
554,504	36711,3
554,929	36294,69
555,355	36634,06
555,78	36238,51
556,206	35948,29
556,631	35253,15
557,056	35475,5
557,481	35545,72
557,906	35040,16
558,331	34394,17
558,756	34429,28
559,181	34410,56
559,606	33804,36
560,031	34609,5
560,456	34300,55
560,881	34288,85
561,305	34976,97
561,73	34309,91
562,155	34703,12
562,579	34717,17
563,004	34335,66
563,428	34735,89
563,853	34754,61
564,277	34501,84
564,701	34401,19
565,126	34405,88
565,55	34120,33
565,974	33507,11
566,398	33806,7
566,822	33773,93
567,246	34029,05
567,67	33731,8
568,094	33963,51
568,518	34019,69
568,941	34054,79
569,365	34216,29
569,789	34178,84
570,213	34197,57
570,636	34024,37
571,06	33558,6
571,483	34000,96
571,907	34216,29
572,33	34375,45
572,753	34630,57
573,177	34644,61
573,6	34333,32
574,023	34567,37
574,446	34291,19
574,869	34071,18
575,292	33563,28
575,715	33408,81
576,138	33624,14
576,561	33434,55
576,984	33146,67
577,407	32933,68
577,829	32669,2
578,252	32870,48
578,675	31929,59
579,097	31976,4
579,52	31941,29
579,942	32224,5
580,364	32175,34
580,787	31695,53
581,209	32252,58
581,631	31931,93
582,054	31590,21
582,476	31641,7
582,898	31952,99
583,32	31632,34
583,742	31585,53
584,164	31676,81
584,586	31548,08
585,008	31211,04
585,429	31112,74
585,851	30480,8
586,273	31105,72
586,694	30733,57
587,116	30972,31
587,538	30239,72
587,959	30293,55
588,38	29495,43
588,802	29137,33
589,223	28517,09
589,644	28524,11
590,066	28758,16
590,487	28783,91
590,908	29205,2
591,329	29362,02
591,75	29408,83
592,171	29642,88
592,592	29734,17
593,013	29682,67
593,434	29968,22
593,854	30431,65
594,275	30422,28
594,696	30663,36
595,116	30366,11
595,537	30602,5
595,957	30913,8
596,378	30932,52
596,798	30792,09
597,218	31049,55
597,639	31215,72
598,059	31108,06
598,479	31094,02
598,899	31051,89
599,319	31175,94
599,739	31007,42
600,159	30733,57
600,579	30913,8
600,999	30457,39
601,419	30298,23
601,839	30536,97
602,259	30260,79
602,678	30022,05
603,098	30698,47
603,517	30188,23
603,937	30115,67
604,356	30441,01
604,776	29741,19
605,195	29666,29
605,614	29921,41
606,034	29549,26
606,453	28929,02
606,872	29160,73
607,291	28790,93
607,71	28903,28
608,129	28273,67
608,548	27779,82
608,967	27756,41
609,386	27398,31
609,805	27136,17
610,223	27241,5
610,642	26888,07
611,061	26721,9
611,479	26134,42
611,898	26757
612,316	26515,93
612,735	25748,23
613,153	25488,43
613,571	25820,79
613,99	25612,48
614,408	25619,5
614,826	25483,75
615,244	25296,51
615,662	24943,09
616,08	24334,55
616,498	24514,77
616,916	24357,96
617,334	24559,24
617,752	24467,96
618,169	24575,62
618,587	24313,48
619,005	24484,34
619,422	24430,51
619,84	24219,86
620,257	24662,22
620,675	24245,61
621,092	24046,66
621,509	24177,73
621,927	23960,06
622,344	23761,12
622,761	23571,54
623,178	23321,1
623,595	23428,76
624,012	23222,8
624,429	22911,5
624,846	22714,9
625,263	22878,74
625,68	22525,32
626,097	22796,82
626,513	22361,48
626,93	22380,2
627,346	22443,4
627,763	22345,09
628,179	22115,72
628,596	21766,98
629,012	22249,13
629,429	21809,11
629,845	22195,3
630,261	21579,74
630,677	21853,58
631,093	21532,93
631,509	21682,72
631,925	21221,64
632,341	21511,86
632,757	21504,84
633,173	21502,5
633,589	21493,14
634,005	21282,49
634,42	21465,05
634,836	21333,98
635,252	21436,97
635,667	21249,72
636,083	21158,44
636,498	21202,91
636,913	21446,33
637,329	21235,68
637,744	21362,07
638,159	21577,4
638,574	21160,78
638,99	20973,54
639,405	21252,06
639,82	20805,02
640,235	20814,38
640,65	20807,36
641,064	20465,64
641,479	20496,07
641,894	20695,02
642,309	20311,17
642,723	20648,21
643,138	20472,67
643,552	20442,24
643,967	20339,26
644,381	20362,66
644,796	20320,53
645,21	20402,45
645,624	20123,93
646,038	20058,39
646,453	19836,04
646,867	19852,42
647,281	19665,18
647,695	19674,54
648,109	19398,36
648,523	19503,68
648,936	19515,39
649,35	19253,25
649,764	19351,55
650,178	19302,4
650,591	19449,85
651,005	19271,97
651,418	19201,75
651,832	19325,8
652,245	19302,4
652,659	19103,45
653,072	19365,59
653,485	19316,44
653,898	19271,97
654,312	18792,16
654,725	18743,01
655,138	18288,95
655,551	17563,38
655,964	17184,21
656,377	17025,06
656,789	17177,19
657,202	17170,17
657,615	17481,46
658,028	17923,82
658,44	17984,68
658,853	18188,3
659,265	17907,44
659,678	18111,07
660,09	18237,45
660,503	18370,86
660,915	18249,16
661,327	18104,04
661,739	18462,15
662,152	18249,16
662,564	18302,99
662,976	18719,6
663,388	18071,28
663,8	18029,15
664,211	17951,91
664,623	18207,03
665,035	17956,59
665,447	17717,86
665,858	18108,72
666,27	17759,99
666,682	17752,96
667,093	17326,99
667,505	17371,46
667,916	17469,76
668,327	17130,38
668,739	17020,38
669,15	17116,34
669,561	17104,63
669,972	16901,01
670,383	16760,58
670,794	16924,41
671,205	16388,43
671,616	16695,04
672,027	16608,44
672,438	16416,52
672,849	16479,71
673,259	16285,45
673,67	16383,75
674,08	16423,54
674,491	16266,72
674,901	16065,44
675,312	16042,03
675,722	16020,97
676,133	15775,21
676,543	15494,35
676,953	15707,34
677,363	16032,67
677,773	15700,31
678,183	15819,68
678,593	15506,05
679,003	15454,56
679,413	15564,56
679,823	15534,14
680,233	15262,63
680,643	15227,53
681,052	14972,41
681,462	15021,56
681,872	14974,75
682,281	15063,69
682,691	14782,82
683,1	14759,42
683,509	14534,73
683,919	14506,64
684,328	14429,4
684,737	14204,71
685,146	14338,12
685,555	14136,84
685,964	13678,09
686,373	13022,74
686,782	12503,14
687,191	12091,21
687,6	11957,8
688,009	11995,25
688,417	11765,87
688,826	11903,96
689,235	11815,02
689,643	11800,98
690,052	12409,52
690,46	12173,13
690,869	12306,54
691,277	12533,57
691,685	12395,48
692,093	12437,61
692,502	12629,53
692,91	12657,62
693,318	12894,01
693,726	12491,44
694,134	12512,5
694,542	12589,74
694,949	12439,95
695,357	12386,11
695,765	12564
696,173	12432,93
696,58	12589,74
696,988	12238,66
697,395	12421,22
697,803	12500,8
698,21	12514,84
698,618	12449,31
699,025	12250,36
699,432	12224,62
699,839	11988,22
700,247	11953,12
700,654	11925,03
701,061	12035,03
701,468	11864,18
701,875	11660,55
702,281	11817,36
702,688	11700,34
703,095	11712,04
703,502	11918,01
703,908	11786,94
704,315	12133,34
704,722	11630,12
705,128	11920,35
705,534	11779,92
705,941	11812,68
706,347	11667,57
706,753	11786,94
707,16	11665,23
707,566	11641,82
707,972	11573,95
708,378	11660,55
708,784	11344,58
709,19	11466,28
709,596	11557,57
710,002	11585,65
710,407	11534,16
710,813	11250,96
711,219	11143,29
711,625	11375
712,03	11206,48
712,436	11119,89
712,841	10853,06
713,246	11052,01
713,652	11147,97
714,057	11129,25
714,462	10885,83
714,868	10719,65
715,273	10724,33
715,678	10707,95
716,083	10516,03
716,488	10328,78
716,893	10249,21
717,297	10054,94
717,702	9818,55
718,107	9577,47
718,512	9600,88
718,916	9219,37
719,321	9111,71
719,725	9032,13
720,13	9280,22
720,534	9469,81
720,939	9635,99
721,343	9596,2
721,747	9575,13
722,151	9895,78
722,556	9778,76
722,96	9661,73
723,364	9771,74
723,768	9420,66
724,172	9415,98
724,576	9301,29
724,979	9238,09
725,383	9233,41
725,787	9497,89
726,19	9228,73
726,594	9156,18
726,998	9289,59
727,401	9081,28
727,805	9273,2
728,208	9069,58
728,611	9219,37
729,014	9025,11
729,418	9083,62
729,821	9062,55
730,224	9135,11
730,627	9153,84
731,03	9078,94
731,433	9221,71
731,836	9261,5
732,239	9252,14
732,641	9289,59
733,044	9476,83
733,447	9444,06
733,849	9408,95
734,252	9287,25
734,654	9554,07
735,057	9497,89
735,459	9378,53
735,862	9551,73
736,264	9205,33
736,666	9352,78
737,068	9193,62
737,47	9214,69
737,872	9146,81
738,274	9240,43
738,676	9186,6
739,078	9092,98
739,48	9025,11
739,882	9167,88
740,284	9195,96
740,685	9202,99
741,087	8978,3
741,488	9097,66
741,89	8973,61
742,291	8828,5
742,693	9004,04
743,094	9004,04
743,495	9144,47
743,897	9212,35
744,298	8999,36
744,699	8905,74
745,1	8905,74
745,501	8849,57
745,902	8788,71
746,303	8739,56
746,704	8730,2
747,105	8758,28
747,505	8730,2
747,906	8610,83
748,307	8617,85
748,707	8589,77
749,108	8542,96
749,508	8430,61
749,908	8526,57
750,309	8519,55
750,709	8603,81
751,109	8496,14
751,51	8514,87
751,91	8432,95
752,31	8475,08
752,71	8493,8
753,11	8416,57
753,51	8585,08
753,909	8517,21
754,309	8477,42
754,709	8313,58
755,109	8521,89
755,508	8259,75
755,908	8386,14
756,307	8224,64
756,707	8320,6
757,106	8327,63
757,505	8112,3
757,905	8170,81
758,304	7822,07
758,703	7431,2
759,102	6927,99
759,501	6441,15
759,9	5830,27
760,299	5383,23
760,698	5114,07
761,097	4786,4
761,496	4917,47
761,895	4748,95
762,293	4931,51
762,692	4971,3
763,09	5083,64
763,489	5125,77
763,887	5158,54
764,286	5338,76
764,684	5441,75
765,082	5507,28
765,481	5729,63
765,879	5970,71
766,277	6099,44
766,675	6314,77
767,073	6436,47
767,471	6523,07
767,869	6630,74
768,267	6806,28
768,664	6792,23
769,062	6782,87
769,46	6822,66
769,857	6871,81
770,255	6813,3
770,653	6960,75
771,05	6806,28
771,447	6860,11
771,845	6916,28
772,242	6935,01
772,639	6801,6
773,036	6822,66
773,433	6733,72
773,831	6672,87
774,228	6710,32
774,624	6778,19
775,021	6593,29
775,418	6731,38
775,815	6551,16
776,212	6476,26
776,608	6555,84
777,005	6450,52
777,401	6523,07
777,798	6565,2
778,194	6546,48
778,591	6422,43
778,987	6448,18
779,383	6363,92
779,78	6286,68
780,176	6305,4
780,572	6232,85
780,968	6218,8
781,364	6392
781,76	6267,95
782,156	6235,19
782,551	6111,14
782,947	6193,06
783,343	6223,48
783,739	6150,93
784,134	6134,54
784,53	6022,2
784,925	5982,41
785,321	6195,4
785,716	6190,72
786,111	6071,35
786,507	6146,25
786,902	6139,23
787,297	6012,84
787,692	5935,6
788,087	5991,77
788,482	6001,13
788,877	5970,71
789,272	5940,28
789,667	5844,32
790,061	5905,17
790,456	5951,98
790,851	5774,1
791,245	5762,4
791,64	5762,4
792,034	5816,23
792,429	5666,44
792,823	5666,44
793,217	5729,63
793,612	5678,14
794,006	5654,73
794,4	5809,21
794,794	5617,29
795,188	5568,13
795,582	5579,84
795,976	5600,9
796,37	5664,1
796,763	5610,26
797,157	5549,41
797,551	5610,26
797,944	5664,1
798,338	5399,62
798,731	5500,26
799,125	5521,32
799,518	5523,66
799,912	5540,05
800,305	5408,98
800,698	5430,04
801,091	5366,85
801,484	5469,83
801,877	5408,98
802,27	5338,76
802,663	5324,72
803,056	5467,49
803,449	5401,96
803,842	5432,38
804,235	5336,42
804,627	5343,44
805,02	5376,21
805,412	5334,08
805,805	5261,52
806,197	5324,72
806,59	5287,27
806,982	5256,84
807,374	5217,05
807,766	5160,88
808,159	5235,78
808,551	5184,29
808,943	5004,07
809,335	5163,22
809,727	5177,26
810,118	5111,73
810,51	5188,97
810,902	5135,14
811,294	5055,56
811,685	5085,98
812,077	4997,04
812,468	4999,38
812,86	5004,07
813,251	4945,55
813,643	4854,27
814,034	4917,47
814,425	4964,28
814,816	4793,42
815,207	4779,37
815,598	4812,14
815,989	4755,97
816,38	4699,8
816,771	4674,05
817,162	4596,81
817,553	4674,05
817,944	4777,03
818,334	4580,43
818,725	4662,35
819,115	4711,5
819,506	4540,64
819,896	4685,75
820,287	4601,49
820,677	4660,01
821,067	4788,74
821,457	4664,69
821,848	4699,8
822,238	4550
822,628	4561,7
823,018	4507,87
823,408	4587,45
823,797	4580,43
824,187	4641,28
824,577	4526,6
824,967	4559,36
825,356	4575,75
825,746	4545,32
826,135	4557,02
826,525	4620,22
826,914	4706,82
827,304	4500,85
827,693	4554,68
828,082	4528,94
828,471	4662,35
828,86	4524,26
829,249	4505,53
829,638	4610,86
830,027	4580,43
830,416	4514,89
830,805	4531,28
831,194	4498,51
831,582	4503,19
831,971	4507,87
832,36	4545,32
832,748	4463,4
833,137	4559,36
833,525	4491,49
833,914	4489,15
834,302	4535,96
834,69	4561,7
835,078	4631,92
835,466	4463,4
835,854	4657,67
836,243	4620,22
836,63	4535,96
837,018	4514,89
837,406	4524,26
837,794	4559,36
838,182	4512,55
838,569	4432,97
838,957	4470,42
839,345	4484,47
839,732	4514,89
840,12	4510,21
840,507	4428,29
840,894	4489,15
841,282	4468,08
841,669	4353,4
842,056	4397,87
842,443	4435,32
842,83	4418,93
843,217	4287,86
843,604	4369,78
843,991	4351,06
844,378	4337,01
844,764	4332,33
845,151	4322,97
845,538	4299,56
845,924	4318,29
846,311	4362,76
846,697	4360,42
847,084	4337,01
847,47	4287,86
847,856	4311,27
848,242	4271,48
848,629	4332,33
849,015	4161,47
849,401	4271,48
849,787	4250,41
850,173	4283,18
850,559	4266,8
850,944	4175,52
851,33	4292,54
851,716	4205,94
852,102	4114,66
852,487	4140,41
852,873	4191,9
853,258	4114,66
853,644	4058,49
854,029	4142,75
854,414	4025,72
854,799	4084,23
855,185	4081,89
855,57	4077,21
855,955	4142,75
856,34	4098,28
856,725	4161,47
857,11	4046,79
857,495	3983,59
857,879	4124,02
858,264	4093,6
858,649	4067,85
859,033	4081,89
859,418	4077,21
859,802	4021,04
860,187	4063,17
860,571	4128,7
860,955	3971,89
861,34	4072,53
861,724	3974,23
862,108	3990,61
862,492	4004,66
862,876	3997,63
863,26	3896,99
863,644	4025,72
864,028	4016,36
864,412	4037,42
864,795	3962,53
865,179	3936,78
865,563	3962,53
865,946	3864,22
866,33	3918,06
866,713	3833,8
867,097	3889,97
867,48	3885,29
867,863	3878,27
868,246	3843,16
868,629	3871,25
869,013	3857,2
869,396	3859,54
869,779	3899,33
870,161	3801,03
870,544	3852,52
870,927	3840,82
871,31	3904,01
871,693	3899,33
872,075	3859,54
872,458	3889,97
872,84	3852,52
873,223	3742,52
873,605	3857,2
873,987	3861,88
874,37	3698,05
874,752	3786,99
875,134	3775,28
875,516	3779,97
875,898	3716,77
876,28	3765,92
876,662	3749,54
877,044	3698,05
877,426	3667,62
877,807	3728,47
878,189	3730,81
878,571	3702,73
878,952	3691,02
879,334	3700,39
879,715	3730,81
880,097	3740,18
880,478	3702,73
880,859	3716,77
881,24	3655,92
881,622	3801,03
882,003	3707,41
882,384	3693,37
882,765	3812,73
883,146	3604,42
883,526	3672,3
883,907	3775,28
884,288	3801,03
884,669	3684
885,049	3705,07
885,43	3702,73
885,81	3838,48
886,191	3775,28
886,571	3829,12
886,952	3854,86
887,332	3786,99
887,712	3868,91
888,092	3833,8
888,472	3803,37
888,852	3728,47
889,232	3829,12
889,612	3833,8
889,992	3810,39
890,372	3852,52
890,752	3852,52
891,131	3808,05
891,511	3815,07
891,89	3775,28
892,27	3852,52
892,649	3908,69
893,029	3859,54
893,408	3847,84
893,787	3754,22
894,167	3754,22
894,546	3735,49
894,925	3782,31
895,304	3756,56
895,683	3747,2
896,062	3695,71
896,441	3695,71
896,819	3672,3
897,198	3609,11
897,577	3613,79
897,955	3597,4
898,334	3583,36
898,712	3557,61
899,091	3496,76
899,469	3466,33
899,848	3581,02
900,226	3494,42
900,604	3527,19
900,982	3599,74
901,36	3449,95
901,738	3426,54
902,116	3454,63
902,494	3442,93
902,872	3459,31
903,25	3524,85
903,628	3545,91
904,005	3545,91
904,383	3466,33
904,76	3463,99
905,138	3506,12
905,515	3480,38
905,893	3531,87
906,27	3524,85
906,647	3564,64
907,024	3412,5
907,402	3428,88
907,779	3520,17
908,156	3473,36
908,533	3419,52
908,91	3501,44
909,286	3421,86
909,663	3391,44
910,04	3382,07
910,417	3398,46
910,793	3414,84
911,17	3417,18
911,546	3417,18
911,923	3431,23
912,299	3414,84
912,675	3382,07
913,051	3353,99
913,428	3349,31
913,804	3361,01
914,18	3424,2
914,556	3356,33
914,932	3421,86
915,308	3344,63
915,683	3297,81
916,059	3400,8
916,435	3379,73
916,811	3403,14
917,186	3328,24
917,562	3361,01
917,937	3346,97
918,313	3349,31
918,688	3417,18
919,063	3370,37
919,438	3311,86
919,814	3300,16
920,189	3349,31
920,564	3297,81
920,939	3311,86
921,314	3391,44
921,689	3356,33
922,063	3330,58
922,438	3239,3
922,813	3293,13
923,187	3314,2
923,562	3332,92
923,936	3325,9
924,311	3288,45
924,685	3321,22
925,06	3288,45
925,434	3344,63
925,808	3337,6
926,182	3253,34
926,556	3311,86
926,93	3281,43
927,304	3304,84
927,678	3187,81
928,052	3248,66
928,426	3251
928,8	3211,21
929,173	3208,87
929,547	3295,47
929,92	3269,73
930,294	3300,16
930,667	3227,6
931,041	3227,6
931,414	3213,56
931,787	3169,09
932,161	3173,77
932,534	3152,7
932,907	3185,47
933,28	3234,62
933,653	3150,36
934,026	3208,87
934,398	3110,57
934,771	3145,68
935,144	3159,72
935,517	3145,68
935,889	3096,53
936,262	3080,14
936,634	3059,08
937,007	3108,23
937,379	3101,21
937,751	3105,89
938,123	3068,44
938,496	3096,53
938,868	3101,21
939,24	3108,23
939,612	3101,21
939,984	3105,89
940,355	3129,3
940,727	3108,23
941,099	3157,38
941,471	3098,87
941,842	3115,25
942,214	3108,23
942,585	3091,85
942,957	3108,23
943,328	3105,89
943,7	3068,44
944,071	3138,66
944,442	3145,68
944,813	3119,93
945,184	3110,57
945,555	3096,53
945,926	3103,55
946,297	3129,3
946,668	3080,14
947,039	3126,96
947,409	3119,93
947,78	3173,77
948,151	3089,51
948,521	3049,72
948,892	3124,62
949,262	3136,32
949,633	3049,72
950,003	3073,12
950,373	3096,53
950,743	3049,72
951,113	3054,4
951,483	3054,4
951,853	3108,23
952,223	3087,17
952,593	3110,57
952,963	3117,59
953,333	3103,55
953,702	3091,85
954,072	3082,49
954,442	3103,55
954,811	3101,21
955,181	3108,23
955,55	3131,64
955,919	3094,19
956,289	3084,83
956,658	3108,23
957,027	3157,38
957,396	3131,64
957,765	3178,45
958,134	3080,14
958,503	3082,49
958,872	3084,83
959,24	3150,36
959,609	3080,14
959,978	3091,85
960,346	3108,23
960,715	3084,83
961,083	3066,1
961,452	3133,98
961,82	3141
962,188	3049,72
962,557	3047,38
962,925	3094,19
963,293	3115,25
963,661	3112,91
964,029	3138,66
964,397	3126,96
964,765	3080,14
965,133	3091,85
965,5	3150,36
965,868	3117,59
966,236	3115,25
966,603	3073,12
966,971	3122,27
967,338	3155,04
967,706	3115,25
968,073	3157,38
968,44	3126,96
968,807	3126,96
969,174	3045,04
969,542	3129,3
969,909	3103,55
970,275	3105,89
970,642	3096,53
971,009	3159,72
971,376	3047,38
971,743	3159,72
972,109	3129,3
972,476	3110,57
972,842	3098,87
973,209	3169,09
973,575	3145,68
973,942	3028,65
974,308	3136,32
974,674	3157,38
975,04	3145,68
975,406	3138,66
975,772	3201,85
976,138	3101,21
976,504	3047,38
976,87	3110,57
977,236	3122,27
977,602	3096,53
977,967	3108,23
978,333	3098,87
978,698	3108,23
979,064	3084,83
979,429	3105,89
979,795	3124,62
980,16	3129,3
980,525	3176,11
980,89	3098,87
981,255	3129,3
981,621	3143,34
981,986	3089,51
982,35	3098,87
982,715	3077,8
983,08	3061,42
983,445	3133,98
983,81	3115,25
984,174	3143,34
984,539	3119,93
984,903	3105,89
985,268	3157,38
985,632	3171,43
985,996	3105,89
986,361	3117,59
986,725	3016,95
987,089	3136,32
987,453	3129,3
987,817	3110,57
988,181	3101,21
988,545	3042,7
988,909	3063,76
989,272	3075,46
989,636	3117,59
990	3131,64
990,363	3049,72
990,727	3141
991,09	3028,65
991,454	3148,02
991,817	3084,83
992,18	3016,95
992,543	3089,51
992,907	3103,55
993,27	3117,59
993,633	3052,06
993,996	3047,38
994,359	3087,17
994,721	3061,42
995,084	3119,93
995,447	3124,62
995,81	3150,36
996,172	3068,44
996,535	3096,53
996,897	3094,19
997,259	3063,76
997,622	3094,19
997,984	3026,31
998,346	3077,8
998,708	3070,78
999,071	3122,27
999,433	3089,51
999,795	3169,09
1000,156	3082,49
1000,518	3077,8
1000,88	3066,1
1001,242	3124,62
1001,603	3131,64
1001,965	2972,48
1002,327	3035,67
1002,688	3084,83
1003,049	3063,76
1003,411	3047,38
1003,772	3089,51
1004,133	3080,14
1004,495	3047,38
1004,856	3047,38
1005,217	3117,59
1005,578	3115,25
1005,939	3082,49
1006,299	3014,61
1006,66	3098,87
1007,021	3063,76
1007,382	3101,21
1007,742	3070,78
1008,103	3073,12
1008,463	2998,23
1008,824	3122,27
1009,184	3108,23
1009,544	3105,89
1009,904	3019,29
1010,265	3052,06
1010,625	3000,57
1010,985	3063,76
1011,345	3101,21
1011,705	3155,04
1012,065	2993,55
1012,424	3038,02
1012,784	3070,78
1013,144	3084,83
1013,503	3040,36
1013,863	3082,49
1014,222	3047,38
1014,582	3082,49
1014,941	3141
1015,3	3021,63
1015,66	3019,29
1016,019	3141
1016,378	3066,1
1016,737	3126,96
1017,096	3040,36
1017,455	3033,33
1017,814	2991,2
1018,173	3047,38
1018,531	3012,27
1018,89	3007,59
1019,249	3059,08
1019,607	3070,78
1019,966	3033,33
1020,324	3110,57
1020,682	3038,02
1021,041	3030,99
1021,399	2993,55
1021,757	3030,99
1022,115	3094,19
1022,473	3061,42
1022,831	3016,95
1023,189	3077,8
1023,547	3054,4
1023,905	3019,29
1024,263	3021,63
1024,62	3042,7
1024,978	3040,36
1025,335	3052,06
1025,693	3080,14
1026,05	3115,25
1026,408	3063,76
1026,765	3063,76
1027,122	3021,63
1027,479	3045,04
1027,837	3068,44
1028,194	3052,06
1028,551	3023,97
1028,908	3026,31
1029,264	3052,06
1029,621	3087,17
1029,978	3021,63
1030,335	2998,23
1030,691	3089,51
1031,048	3096,53
1031,404	3040,36
1031,761	2988,86
1032,117	3075,46
1032,473	3068,44
1032,83	3021,63
1033,186	3091,85
1033,542	3056,74
1033,898	3084,83
1034,254	3059,08
1034,61	3059,08
1034,966	3059,08
